List of Peaks
No.	(ppm)	(Hz)	Height
1	0.893	535.5	0.1067
2	0.905	542.7	0.2414
3	0.917	549.8	0.1131
4	1.304	781.6	0.0065
5	1.309	784.5	0.0107
6	1.313	787.3	0.0150
7	1.317	789.5	0.0115
8	1.323	793.0	0.0199
9	1.331	797.9	0.0235
10	1.335	800.5	0.0302
11	1.344	805.3	0.0603
12	1.356	812.6	0.0919
13	1.368	819.8	0.0859
14	1.377	825.1	0.0518
15	1.385	829.9	0.0224
16	1.394	835.7	0.0159
17	1.399	838.7	0.0084
18	1.404	841.4	0.0081
19	1.803	1080.4	0.0058
20	1.811	1085.5	0.0060
21	1.814	1087.5	0.0084
22	1.819	1090.5	0.0126
23	1.827	1094.9	0.0196
24	1.831	1097.4	0.0163
25	1.835	1100.0	0.0161
26	1.838	1102.0	0.0233
27	1.840	1102.9	0.0232
28	1.843	1104.8	0.0309
29	1.846	1106.8	0.0190
30	1.855	1112.1	0.0359
31	1.865	1118.0	0.0424
32	1.874	1123.5	0.0338
33	1.883	1128.6	0.0243
34	1.889	1132.5	0.0199
35	1.892	1133.8	0.0181
36	1.898	1137.8	0.0112
37	1.907	1142.8	0.0081
38	1.915	1148.1	0.0043
39	3.729	2234.9	0.0803
40	3.737	2240.2	0.0938
41	3.740	2241.7	0.0874
42	3.749	2247.2	0.0769

List of Muliplets
No.	Shift1 (ppm)	Hs	Type	J (Hz)	Atom1	Multiplet1	 (ppm)
1	0.905	28	t	7.14	9	M01	0.891 .. 0.919
2	1.353	39	m	-	8 7	M02	1.317 .. 1.394
3	1.854	21	m	-	6	M03	1.811 .. 1.907
4	3.739	12	dd	6.92 5.38	4	M04	3.727 .. 3.750

List of Assignments
No.	Atom	Exp. Shift (ppm)	Multiplet
1	9	0.905	M01
2	8	1.353	M02
3	7	1.353	M02
4	6	1.854	M03
5	4	3.739	M04
